Absorbance: 0.24	
187.923	-0	
188.387	-0	
188.851	-0	
189.315	-2.6	
189.779	-1.6	
190.242	-1.59	
190.706	-2.58	
191.17	-0	
191.633	-0	
192.097	-0	
192.56	-1.42	
193.024	-0	
193.487	-0	
193.951	-0	
194.414	-0	
194.877	-1.76	
195.34	-1.84	
195.803	-0	
196.266	-0	
196.73	-1.75	
197.193	-2.32	
197.656	-1.36	
198.118	-0	
198.581	-1.07	
199.044	-0.6	
199.507	-0.57	
199.97	-0.5	
200.432	-0.51	
200.895	-0.57	
201.358	-0.51	
201.82	-0.56	
202.283	-0.52	
202.745	-0.53	
203.207	-0.53	
203.67	-0.54	
204.132	-0.57	
204.594	-0.57	
205.056	-0.5	
205.519	-0.53	
205.981	-0.59	
206.443	-0.57	
206.905	-0.54	
207.367	-0.55	
207.829	-0.5	
208.291	-0.58	
208.752	-0.63	
209.214	-0.54	
209.676	-0.53	
210.138	-0.49	
210.599	-0.51	
211.061	-0.54	
211.522	-0.51	
211.984	-0.52	
212.445	-0.51	
212.907	-0.58	
213.368	-0.52	
213.829	-0.51	
214.291	-0.48	
214.752	-0.51	
215.213	-0.44	
215.674	-0.42	
216.135	-0.38	
216.596	-0.35	
217.057	-0.3	
217.518	-0.3	
217.979	-0.27	
218.44	-0.21	
218.9	-0.15	
219.361	-0.13	
219.822	-0.1	
220.282	-0.08	
220.743	-0.07	
221.204	-0.04	
221.664	-0.03	
222.125	-0	
222.585	0.01	
223.045	0.07	
223.506	0.06	
223.966	0.05	
224.426	0.08	
224.886	0.08	
225.346	0.08	
225.806	0.12	
226.266	0.1	
226.726	0.11	
227.186	0.1	
227.646	0.13	
228.106	0.11	
228.566	0.11	
229.025	0.12	
229.485	0.12	
229.945	0.12	
230.404	0.11	
230.864	0.12	
231.323	0.11	
231.783	0.12	
232.242	0.11	
232.702	0.12	
233.161	0.13	
233.62	0.12	
234.079	0.11	
234.538	0.1	
234.998	0.11	
235.457	0.1	
235.916	0.12	
236.375	0.12	
236.834	0.11	
237.292	0.12	
237.751	0.12	
238.21	0.11	
238.669	0.12	
239.127	0.12	
239.586	0.12	
240.045	0.12	
240.503	0.12	
240.962	0.12	
241.42	0.11	
241.878	0.12	
242.337	0.12	
242.795	0.12	
243.253	0.12	
243.712	0.12	
244.17	0.12	
244.628	0.12	
245.086	0.12	
245.544	0.11	
246.002	0.11	
246.46	0.12	
246.918	0.12	
247.375	0.12	
247.833	0.13	
248.291	0.12	
248.749	0.12	
249.206	0.12	
249.664	0.11	
250.121	0.11	
250.579	0.14	
251.036	0.12	
251.494	0.11	
251.951	0.13	
252.408	0.13	
252.866	0.13	
253.323	0.14	
253.78	0.13	
254.237	0.13	
254.694	0.15	
255.151	0.13	
255.608	0.13	
256.065	0.13	
256.522	0.12	
256.979	0.12	
257.435	0.13	
257.892	0.12	
258.349	0.12	
258.805	0.13	
259.262	0.12	
259.718	0.13	
260.175	0.14	
260.631	0.14	
261.088	0.13	
261.544	0.14	
262	0.14	
262.457	0.14	
262.913	0.14	
263.369	0.14	
263.825	0.12	
264.281	0.15	
264.737	0.13	
265.193	0.14	
265.649	0.14	
266.105	0.13	
266.561	0.13	
267.016	0.14	
267.472	0.14	
267.928	0.13	
268.383	0.13	
268.839	0.14	
269.294	0.13	
269.75	0.14	
270.205	0.14	
270.661	0.13	
271.116	0.14	
271.571	0.14	
272.026	0.14	
272.482	0.14	
272.937	0.13	
273.392	0.12	
273.847	0.14	
274.302	0.14	
274.757	0.13	
275.212	0.12	
275.666	0.13	
276.121	0.12	
276.576	0.15	
277.031	0.12	
277.485	0.13	
277.94	0.13	
278.395	0.12	
278.849	0.14	
279.303	0.13	
279.758	0.13	
280.212	0.12	
280.667	0.13	
281.121	0.14	
281.575	0.13	
282.029	0.14	
282.483	0.14	
282.937	0.13	
283.391	0.13	
283.845	0.14	
284.299	0.11	
284.753	0.12	
285.207	0.13	
285.661	0.12	
286.115	0.13	
286.568	0.12	
287.022	0.13	
287.475	0.12	
287.929	0.12	
288.383	0.12	
288.836	0.12	
289.289	0.12	
289.743	0.14	
290.196	0.12	
290.649	0.12	
291.102	0.12	
291.556	0.12	
292.009	0.11	
292.462	0.13	
292.915	0.13	
293.368	0.12	
293.821	0.11	
294.274	0.11	
294.726	0.11	
295.179	0.11	
295.632	0.12	
296.084	0.11	
296.537	0.1	
296.99	0.1	
297.442	0.11	
297.895	0.12	
298.347	0.11	
298.8	0.09	
299.252	0.1	
299.704	0.1	
300.156	0.1	
300.609	0.11	
301.061	0.11	
301.513	0.1	
301.965	0.1	
302.417	0.09	
302.869	0.09	
303.321	0.1	
303.773	0.09	
304.224	0.09	
304.676	0.09	
305.128	0.1	
305.579	0.09	
306.031	0.08	
306.483	0.09	
306.934	0.08	
307.386	0.09	
307.837	0.08	
308.288	0.08	
308.74	0.09	
309.191	0.09	
309.642	0.08	
310.093	0.08	
310.544	0.08	
310.996	0.09	
311.447	0.08	
311.898	0.07	
312.348	0.08	
312.799	0.08	
313.25	0.07	
313.701	0.07	
314.152	0.07	
314.602	0.08	
315.053	0.06	
315.504	0.07	
315.954	0.07	
316.405	0.07	
316.855	0.06	
317.305	0.06	
317.756	0.08	
318.206	0.08	
318.656	0.07	
319.107	0.07	
319.557	0.07	
320.007	0.05	
320.457	0.06	
320.907	0.06	
321.357	0.07	
321.807	0.06	
322.257	0.05	
322.706	0.06	
323.156	0.05	
323.606	0.06	
324.056	0.05	
324.505	0.06	
324.955	0.06	
325.404	0.06	
325.854	0.06	
326.303	0.05	
326.753	0.06	
327.202	0.04	
327.651	0.04	
328.1	0.05	
328.55	0.05	
328.999	0.06	
329.448	0.06	
329.897	0.06	
330.346	0.06	
330.795	0.07	
331.244	0.08	
331.693	0.07	
332.141	0.07	
332.59	0.06	
333.039	0.07	
333.487	0.06	
333.936	0.06	
334.385	0.07	
334.833	0.06	
335.282	0.07	
335.73	0.07	
336.178	0.07	
336.627	0.08	
337.075	0.08	
337.523	0.07	
337.971	0.07	
338.419	0.09	
338.867	0.07	
339.315	0.07	
339.763	0.08	
340.211	0.09	
340.659	0.08	
341.107	0.08	
341.555	0.08	
342.002	0.09	
342.45	0.08	
342.898	0.1	
343.345	0.1	
343.793	0.09	
344.24	0.1	
344.688	0.1	
345.135	0.09	
345.582	0.1	
346.03	0.1	
346.477	0.11	
346.924	0.1	
347.371	0.1	
347.818	0.12	
348.265	0.11	
348.712	0.1	
349.159	0.12	
349.606	0.12	
350.053	0.13	
350.5	0.12	
350.947	0.12	
351.393	0.12	
351.84	0.13	
352.287	0.14	
352.733	0.13	
353.18	0.13	
353.626	0.13	
354.072	0.15	
354.519	0.15	
354.965	0.16	
355.411	0.14	
355.858	0.16	
356.304	0.17	
356.75	0.18	
357.196	0.17	
357.642	0.18	
358.088	0.18	
358.534	0.2	
358.98	0.19	
359.425	0.21	
359.871	0.2	
360.317	0.22	
360.763	0.22	
361.208	0.22	
361.654	0.24	
362.099	0.24	
362.545	0.25	
362.99	0.26	
363.436	0.26	
363.881	0.28	
364.326	0.29	
364.771	0.29	
365.217	0.29	
365.662	0.32	
366.107	0.31	
366.552	0.32	
366.997	0.33	
367.442	0.34	
367.887	0.35	
368.332	0.35	
368.776	0.36	
369.221	0.36	
369.666	0.38	
370.11	0.39	
370.555	0.4	
371	0.4	
371.444	0.41	
371.888	0.41	
372.333	0.43	
372.777	0.44	
373.221	0.46	
373.666	0.44	
374.11	0.48	
374.554	0.48	
374.998	0.49	
375.442	0.5	
375.886	0.52	
376.33	0.53	
376.774	0.53	
377.218	0.53	
377.662	0.55	
378.106	0.54	
378.549	0.55	
378.993	0.58	
379.436	0.58	
379.88	0.57	
380.324	0.59	
380.767	0.58	
381.21	0.57	
381.654	0.58	
382.097	0.59	
382.54	0.6	
382.984	0.58	
383.427	0.61	
383.87	0.6	
384.313	0.6	
384.756	0.6	
385.199	0.59	
385.642	0.62	
386.085	0.59	
386.528	0.62	
386.97	0.61	
387.413	0.63	
387.856	0.65	
388.298	0.63	
388.741	0.63	
389.183	0.65	
389.626	0.64	
390.068	0.65	
390.511	0.64	
390.953	0.65	
391.395	0.62	
391.838	0.66	
392.28	0.65	
392.722	0.66	
393.164	0.67	
393.606	0.67	
394.048	0.67	
394.49	0.64	
394.932	0.66	
395.374	0.64	
395.815	0.64	
396.257	0.63	
396.699	0.65	
397.141	0.64	
397.582	0.66	
398.024	0.66	
398.465	0.65	
398.907	0.68	
399.348	0.63	
399.789	0.64	
400.231	0.64	
400.672	0.62	
401.113	0.63	
401.554	0.62	
401.995	0.6	
402.436	0.62	
402.877	0.6	
403.318	0.62	
403.759	0.6	
404.2	0.6	
404.641	0.61	
405.082	0.59	
405.522	0.59	
405.963	0.58	
406.404	0.57	
406.844	0.59	
407.285	0.56	
407.725	0.58	
408.166	0.58	
408.606	0.58	
409.046	0.56	
409.487	0.55	
409.927	0.55	
410.367	0.54	
410.807	0.54	
411.247	0.56	
411.687	0.52	
412.127	0.54	
412.567	0.53	
413.007	0.52	
413.447	0.53	
413.886	0.52	
414.326	0.53	
414.766	0.52	
415.205	0.52	
415.645	0.49	
416.084	0.49	
416.524	0.49	
416.963	0.5	
417.403	0.48	
417.842	0.46	
418.281	0.46	
418.721	0.44	
419.16	0.44	
419.599	0.43	
420.038	0.44	
420.477	0.43	
420.916	0.44	
421.355	0.41	
421.794	0.4	
422.233	0.4	
422.671	0.39	
423.11	0.37	
423.549	0.37	
423.987	0.37	
424.426	0.34	
424.864	0.34	
425.303	0.34	
425.741	0.32	
426.18	0.3	
426.618	0.31	
427.056	0.29	
427.495	0.3	
427.933	0.28	
428.371	0.28	
428.809	0.27	
429.247	0.26	
429.685	0.25	
430.123	0.25	
430.561	0.24	
430.999	0.23	
431.436	0.23	
431.874	0.22	
432.312	0.21	
432.749	0.2	
433.187	0.2	
433.625	0.22	
434.062	0.19	
434.5	0.18	
434.937	0.18	
435.374	0.18	
435.812	0.19	
436.249	0.17	
436.686	0.17	
437.123	0.17	
437.56	0.17	
437.997	0.16	
438.434	0.15	
438.871	0.15	
439.308	0.14	
439.745	0.15	
440.182	0.14	
440.618	0.14	
441.055	0.14	
441.492	0.14	
441.928	0.14	
442.365	0.13	
442.801	0.14	
443.238	0.13	
443.674	0.12	
444.111	0.13	
444.547	0.13	
444.983	0.13	
445.419	0.11	
445.855	0.12	
446.292	0.13	
446.728	0.12	
447.164	0.12	
447.599	0.11	
448.035	0.13	
448.471	0.11	
448.907	0.11	
449.343	0.11	
449.778	0.11	
450.214	0.11	
450.65	0.11	
451.085	0.11	
451.521	0.11	
451.956	0.1	
452.392	0.12	
452.827	0.1	
453.262	0.1	
453.697	0.11	
454.133	0.1	
454.568	0.09	
455.003	0.09	
455.438	0.1	
455.873	0.1	
456.308	0.09	
456.743	0.09	
457.178	0.1	
457.612	0.08	
458.047	0.09	
458.482	0.09	
458.917	0.09	
459.351	0.09	
459.786	0.09	
460.22	0.09	
460.655	0.09	
461.089	0.08	
461.523	0.09	
461.958	0.08	
462.392	0.07	
462.826	0.09	
463.26	0.08	
463.694	0.08	
464.128	0.08	
464.562	0.08	
464.996	0.08	
465.43	0.08	
465.864	0.08	
466.298	0.09	
466.732	0.08	
467.165	0.09	
467.599	0.08	
468.033	0.08	
468.466	0.07	
468.9	0.07	
469.333	0.09	
469.767	0.08	
470.2	0.07	
470.633	0.07	
471.066	0.08	
471.5	0.08	
471.933	0.08	
472.366	0.08	
472.799	0.07	
473.232	0.07	
473.665	0.07	
474.098	0.07	
474.531	0.07	
474.963	0.06	
475.396	0.06	
475.829	0.07	
476.262	0.07	
476.694	0.07	
477.127	0.06	
477.559	0.06	
477.992	0.06	
478.424	0.07	
478.856	0.07	
479.289	0.06	
479.721	0.06	
480.153	0.06	
480.585	0.07	
481.017	0.07	
481.449	0.05	
481.881	0.05	
482.313	0.06	
482.745	0.06	
483.177	0.06	
483.609	0.06	
484.041	0.07	
484.472	0.07	
484.904	0.06	
485.336	0.06	
485.767	0.06	
486.199	0.05	
486.63	0.06	
487.062	0.06	
487.493	0.06	
487.924	0.06	
488.355	0.06	
488.787	0.06	
489.218	0.05	
489.649	0.06	
490.08	0.05	
490.511	0.06	
490.942	0.06	
491.373	0.06	
491.804	0.06	
492.234	0.05	
492.665	0.06	
493.096	0.05	
493.526	0.05	
493.957	0.05	
494.388	0.06	
494.818	0.06	
495.249	0.05	
495.679	0.06	
496.109	0.05	
496.54	0.06	
496.97	0.06	
497.4	0.06	
497.83	0.06	
498.26	0.05	
498.69	0.05	
499.12	0.06	
499.55	0.06	
499.98	0.06	
500.41	0.06	
500.84	0.05	
501.269	0.05	
501.699	0.06	
502.129	0.06	
502.558	0.06	
502.988	0.06	
503.417	0.05	
503.847	0.05	
504.276	0.06	
504.706	0.06	
505.135	0.06	
505.564	0.05	
505.993	0.06	
506.422	0.06	
506.851	0.06	
507.28	0.06	
507.709	0.06	
508.138	0.06	
508.567	0.06	
508.996	0.07	
509.425	0.06	
509.854	0.07	
510.282	0.06	
510.711	0.06	
511.14	0.06	
511.568	0.06	
511.997	0.06	
512.425	0.06	
512.853	0.07	
513.282	0.07	
513.71	0.07	
514.138	0.06	
514.566	0.07	
514.994	0.06	
515.423	0.07	
515.851	0.07	
516.279	0.07	
516.706	0.06	
517.134	0.07	
517.562	0.07	
517.99	0.07	
518.418	0.07	
518.845	0.07	
519.273	0.07	
519.701	0.07	
520.128	0.07	
520.556	0.07	
520.983	0.07	
521.41	0.07	
521.838	0.07	
522.265	0.07	
522.692	0.07	
523.119	0.07	
523.546	0.08	
523.973	0.08	
524.4	0.07	
524.827	0.07	
525.254	0.07	
525.681	0.07	
526.108	0.08	
526.535	0.08	
526.962	0.07	
527.388	0.07	
527.815	0.07	
528.241	0.08	
528.668	0.07	
529.094	0.07	
529.521	0.07	
529.947	0.08	
530.373	0.08	
530.8	0.08	
531.226	0.08	
531.652	0.08	
532.078	0.08	
532.504	0.07	
532.93	0.08	
533.356	0.07	
533.782	0.07	
534.208	0.08	
534.634	0.08	
535.059	0.09	
535.485	0.09	
535.911	0.08	
536.336	0.08	
536.762	0.08	
537.187	0.08	
537.613	0.08	
538.038	0.08	
538.464	0.08	
538.889	0.08	
539.314	0.08	
539.739	0.09	
540.164	0.08	
540.59	0.08	
541.015	0.08	
541.44	0.09	
541.865	0.08	
542.289	0.08	
542.714	0.09	
543.139	0.09	
543.564	0.09	
543.988	0.09	
544.413	0.08	
544.838	0.08	
545.262	0.09	
545.687	0.09	
546.111	0.09	
546.535	0.09	
546.96	0.08	
547.384	0.09	
547.808	0.09	
548.233	0.09	
548.657	0.09	
549.081	0.09	
549.505	0.09	
549.929	0.09	
550.353	0.09	
550.776	0.09	
551.2	0.09	
551.624	0.09	
552.048	0.09	
552.471	0.09	
552.895	0.09	
553.319	0.09	
553.742	0.09	
554.166	0.09	
554.589	0.09	
555.012	0.09	
555.436	0.09	
555.859	0.09	
556.282	0.1	
556.705	0.09	
557.128	0.09	
557.552	0.09	
557.975	0.1	
558.398	0.1	
558.82	0.1	
559.243	0.09	
559.666	0.1	
560.089	0.09	
560.512	0.1	
560.934	0.1	
561.357	0.1	
561.779	0.1	
562.202	0.1	
562.624	0.1	
563.047	0.09	
563.469	0.1	
563.891	0.1	
564.314	0.1	
564.736	0.1	
565.158	0.1	
565.58	0.1	
566.002	0.11	
566.424	0.11	
566.846	0.11	
567.268	0.11	
567.69	0.11	
568.111	0.11	
568.533	0.11	
568.955	0.11	
569.377	0.11	
569.798	0.11	
570.22	0.11	
570.641	0.11	
571.063	0.11	
571.484	0.11	
571.905	0.11	
572.327	0.11	
572.748	0.11	
573.169	0.11	
573.59	0.11	
574.011	0.11	
574.432	0.11	
574.853	0.11	
575.274	0.12	
575.695	0.12	
576.116	0.12	
576.536	0.12	
576.957	0.12	
577.378	0.12	
577.798	0.12	
578.219	0.12	
578.64	0.12	
579.06	0.13	
579.48	0.13	
579.901	0.13	
580.321	0.13	
580.741	0.12	
581.161	0.13	
581.582	0.13	
582.002	0.13	
582.422	0.14	
582.842	0.13	
583.262	0.14	
583.682	0.14	
584.101	0.14	
584.521	0.14	
584.941	0.14	
585.361	0.14	
585.78	0.14	
586.2	0.15	
586.619	0.14	
587.039	0.14	
587.458	0.15	
587.878	0.15	
588.297	0.15	
588.716	0.15	
589.136	0.16	
589.555	0.16	
589.974	0.16	
590.393	0.15	
590.812	0.16	
591.231	0.16	
591.65	0.16	
592.069	0.16	
592.488	0.16	
592.906	0.15	
593.325	0.16	
593.744	0.16	
594.162	0.16	
594.581	0.16	
594.999	0.16	
595.418	0.16	
595.836	0.16	
596.255	0.16	
596.673	0.15	
597.091	0.16	
597.509	0.16	
597.928	0.15	
598.346	0.16	
598.764	0.15	
599.182	0.15	
599.6	0.16	
600.018	0.16	
600.435	0.16	
600.853	0.17	
601.271	0.17	
601.689	0.18	
602.106	0.18	
602.524	0.18	
602.941	0.18	
603.359	0.19	
603.776	0.18	
604.194	0.19	
604.611	0.19	
605.028	0.19	
605.446	0.2	
605.863	0.2	
606.28	0.2	
606.697	0.2	
607.114	0.21	
607.531	0.21	
607.948	0.21	
608.365	0.22	
608.782	0.23	
609.198	0.23	
609.615	0.23	
610.032	0.24	
610.448	0.24	
610.865	0.24	
611.281	0.25	
611.698	0.25	
612.114	0.26	
612.531	0.25	
612.947	0.26	
613.363	0.26	
613.779	0.26	
614.196	0.26	
614.612	0.26	
615.028	0.27	
615.444	0.27	
615.86	0.28	
616.276	0.28	
616.691	0.29	
617.107	0.29	
617.523	0.3	
617.939	0.3	
618.354	0.3	
618.77	0.31	
619.185	0.31	
619.601	0.31	
620.016	0.31	
620.432	0.31	
620.847	0.32	
621.262	0.32	
621.677	0.32	
622.093	0.32	
622.508	0.33	
622.923	0.33	
623.338	0.34	
623.753	0.34	
624.168	0.34	
624.583	0.35	
624.997	0.34	
625.412	0.35	
625.827	0.35	
626.242	0.36	
626.656	0.36	
627.071	0.36	
627.485	0.37	
627.9	0.36	
628.314	0.37	
628.728	0.37	
629.143	0.37	
629.557	0.38	
629.971	0.38	
630.385	0.39	
630.799	0.39	
631.213	0.39	
631.627	0.4	
632.041	0.4	
632.455	0.41	
632.869	0.4	
633.283	0.41	
633.697	0.41	
634.11	0.41	
634.524	0.42	
634.937	0.42	
635.351	0.42	
635.764	0.42	
636.178	0.42	
636.591	0.43	
637.004	0.42	
637.418	0.43	
637.831	0.42	
638.244	0.43	
638.657	0.43	
639.07	0.44	
639.483	0.45	
639.896	0.44	
640.309	0.44	
640.722	0.44	
641.135	0.45	
641.547	0.45	
641.96	0.46	
642.373	0.45	
642.785	0.45	
643.198	0.46	
643.61	0.46	
644.023	0.46	
644.435	0.46	
644.848	0.46	
645.26	0.47	
645.672	0.47	
646.084	0.48	
646.496	0.47	
646.908	0.48	
647.32	0.47	
647.732	0.47	
648.144	0.48	
648.556	0.49	
648.968	0.48	
649.38	0.48	
649.791	0.48	
650.203	0.49	
650.615	0.49	
651.026	0.49	
651.438	0.49	
651.849	0.5	
652.261	0.5	
652.672	0.49	
653.083	0.5	
653.495	0.49	
653.906	0.5	
654.317	0.5	
654.728	0.5	
655.139	0.5	
655.55	0.49	
655.961	0.49	
656.372	0.49	
656.783	0.49	
657.193	0.5	
657.604	0.5	
658.015	0.5	
658.425	0.5	
658.836	0.5	
659.246	0.51	
659.657	0.5	
660.067	0.5	
660.478	0.5	
660.888	0.5	
661.298	0.5	
661.708	0.5	
662.119	0.5	
662.529	0.49	
662.939	0.49	
663.349	0.5	
663.759	0.49	
664.169	0.5	
664.578	0.5	
664.988	0.49	
665.398	0.49	
665.808	0.5	
666.217	0.5	
666.627	0.49	
667.036	0.49	
667.446	0.49	
667.855	0.49	
668.265	0.49	
668.674	0.5	
669.083	0.49	
669.492	0.49	
669.902	0.49	
670.311	0.5	
670.72	0.49	
671.129	0.49	
671.538	0.49	
671.947	0.49	
672.355	0.49	
672.764	0.49	
673.173	0.49	
673.582	0.5	
673.99	0.49	
674.399	0.49	
674.807	0.5	
675.216	0.49	
675.624	0.49	
676.033	0.5	
676.441	0.49	
676.849	0.5	
677.258	0.5	
677.666	0.5	
678.074	0.5	
678.482	0.5	
678.89	0.5	
679.298	0.51	
679.706	0.5	
680.114	0.5	
680.522	0.5	
680.929	0.51	
681.337	0.5	
681.745	0.51	
682.152	0.5	
682.56	0.51	
682.967	0.51	
683.375	0.51	
683.782	0.51	
684.189	0.51	
684.597	0.52	
685.004	0.5	
685.411	0.51	
685.818	0.52	
686.225	0.51	
686.632	0.52	
687.039	0.52	
687.446	0.52	
687.853	0.52	
688.26	0.51	
688.667	0.52	
689.073	0.52	
689.48	0.52	
689.887	0.52	
690.293	0.53	
690.7	0.53	
691.106	0.52	
691.513	0.52	
691.919	0.53	
692.325	0.53	
692.732	0.52	
693.138	0.53	
693.544	0.53	
693.95	0.54	
694.356	0.53	
694.762	0.54	
695.168	0.53	
695.574	0.54	
695.98	0.54	
696.385	0.54	
696.791	0.54	
697.197	0.53	
697.602	0.54	
698.008	0.54	
698.413	0.53	
698.819	0.54	
699.224	0.54	
699.63	0.54	
700.035	0.55	
700.44	0.55	
700.845	0.55	
701.251	0.55	
701.656	0.55	
702.061	0.56	
702.466	0.55	
702.871	0.55	
703.275	0.56	
703.68	0.55	
704.085	0.55	
704.49	0.56	
704.894	0.57	
705.299	0.56	
705.704	0.56	
706.108	0.56	
706.513	0.55	
706.917	0.56	
707.321	0.56	
707.726	0.57	
708.13	0.56	
708.534	0.56	
708.938	0.56	
709.342	0.56	
709.746	0.55	
710.15	0.56	
710.554	0.57	
710.958	0.57	
711.362	0.56	
711.766	0.57	
712.17	0.57	
712.573	0.56	
712.977	0.57	
713.38	0.56	
713.784	0.56	
714.187	0.56	
714.591	0.57	
714.994	0.57	
715.397	0.57	
715.801	0.56	
716.204	0.58	
716.607	0.58	
717.01	0.57	
717.413	0.57	
717.816	0.57	
718.219	0.58	
718.622	0.57	
719.025	0.57	
719.428	0.58	
719.83	0.57	
720.233	0.57	
720.636	0.57	
721.038	0.57	
721.441	0.57	
721.843	0.58	
722.246	0.58	
722.648	0.58	
723.05	0.58	
723.453	0.57	
723.855	0.57	
724.257	0.57	
724.659	0.57	
725.061	0.57	
725.463	0.57	
725.865	0.57	
726.267	0.57	
726.669	0.57	
727.07	0.57	
727.472	0.57	
727.874	0.56	
728.276	0.58	
728.677	0.57	
729.079	0.56	
729.48	0.57	
729.881	0.57	
730.283	0.57	
730.684	0.56	
731.085	0.56	
731.487	0.57	
731.888	0.56	
732.289	0.55	
732.69	0.56	
733.091	0.57	
733.492	0.56	
733.893	0.56	
734.294	0.55	
734.694	0.55	
735.095	0.55	
735.496	0.55	
735.896	0.55	
736.297	0.55	
736.697	0.55	
737.098	0.55	
737.498	0.55	
737.899	0.55	
738.299	0.54	
738.699	0.54	
739.099	0.54	
739.5	0.53	
739.9	0.55	
740.3	0.54	
740.7	0.54	
741.1	0.53	
741.5	0.53	
741.899	0.53	
742.299	0.53	
742.699	0.53	
743.099	0.52	
743.498	0.54	
743.898	0.52	
744.297	0.51	
744.697	0.52	
745.096	0.52	
745.495	0.52	
745.895	0.52	
746.294	0.52	
746.693	0.52	
747.092	0.51	
747.491	0.51	
747.89	0.5	
748.289	0.49	
748.688	0.51	
749.087	0.5	
749.486	0.5	
749.885	0.49	
750.284	0.49	
750.682	0.49	
751.081	0.49	
751.479	0.49	
751.878	0.49	
752.276	0.49	
752.675	0.49	
753.073	0.48	
753.471	0.48	
753.87	0.48	
754.268	0.48	
754.666	0.48	
755.064	0.47	
755.462	0.47	
755.86	0.47	
756.258	0.47	
756.656	0.46	
757.054	0.46	
757.452	0.46	
757.849	0.46	
758.247	0.46	
758.645	0.46	
759.042	0.46	
759.44	0.45	
759.837	0.44	
760.234	0.44	
760.632	0.45	
761.029	0.45	
761.426	0.44	
761.823	0.44	
762.221	0.43	
762.618	0.43	
763.015	0.44	
763.412	0.43	
763.809	0.43	
764.205	0.43	
764.602	0.43	
764.999	0.42	
765.396	0.42	
765.792	0.43	
766.189	0.41	
766.586	0.42	
766.982	0.41	
767.378	0.42	
767.775	0.41	
768.171	0.41	
768.567	0.4	
768.964	0.4	
769.36	0.41	
769.756	0.4	
770.152	0.41	
770.548	0.39	
770.944	0.38	
771.34	0.39	
771.736	0.38	
772.132	0.39	
772.527	0.39	
772.923	0.38	
773.319	0.38	
773.714	0.38	
774.11	0.38	
774.505	0.38	
774.901	0.37	
775.296	0.37	
775.691	0.36	
776.087	0.37	
776.482	0.36	
776.877	0.36	
777.272	0.36	
777.667	0.36	
778.062	0.36	
778.457	0.35	
778.852	0.36	
779.247	0.35	
779.642	0.35	
780.037	0.35	
780.431	0.35	
780.826	0.35	
781.22	0.34	
781.615	0.34	
782.009	0.33	
782.404	0.33	
782.798	0.34	
783.193	0.33	
783.587	0.32	
783.981	0.32	
784.375	0.33	
784.769	0.32	
785.163	0.32	
785.557	0.31	
785.951	0.32	
786.345	0.32	
786.739	0.31	
787.133	0.31	
787.527	0.31	
787.92	0.31	
788.314	0.31	
788.707	0.31	
789.101	0.3	
789.494	0.3	
789.888	0.3	
790.281	0.3	
790.674	0.3	
791.068	0.3	
791.461	0.3	
791.854	0.29	
792.247	0.29	
792.64	0.29	
793.033	0.28	
793.426	0.29	
793.819	0.29	
794.212	0.28	
794.605	0.27	
794.997	0.28	
795.39	0.28	
795.782	0.27	
796.175	0.26	
796.568	0.26	
796.96	0.27	
797.352	0.27	
797.745	0.26	
798.137	0.26	
798.529	0.26	
798.921	0.27	
799.314	0.26	
799.706	0.26	
800.098	0.26	
800.49	0.25	
800.882	0.25	
801.273	0.25	
801.665	0.25	
802.057	0.24	
802.449	0.25	
802.84	0.25	
803.232	0.24	
803.623	0.25	
804.015	0.24	
804.406	0.24	
804.798	0.24	
805.189	0.23	
805.58	0.23	
805.972	0.24	
806.363	0.23	
806.754	0.23	
807.145	0.23	
